File: CuXX_PAA50_and_Cu20_PAA50_NaCl-treatment_and_ISS-twin.nor
# XDI/1.0 Demeter/0.9.26
# Demeter.output_filetype: multicolumn normalized mu(E)
# Element.symbol: Cu
# Element.edge: K
# Column.1: energy eV
# Column.2: Cufoil
# Column.3: Cu20_PAMAM_m
# Column.4: Cu20_PAMAM_NaCl_30mins_m
# Column.5: Cu20_PAMAM_NaCl_60mins_m
# Column.6: Cu20_PAMAM_NaCl_90mins_m
# Column.7: Cu(OH)2_standard
# Column.8: Cu2O_standard
# Column.9: CuF2_standard
# Column.10: CuO_standard
# Column.11: FeTF_Cu5_PAMAM50_m
# Column.12: FeTF_Cu10_PAMAM50_m
# Column.13: FeTF_Cu20_PAMAM50_m
# Column.14: FeTF_Cu40_PAMAM50_m
# Column.15: Cu-ISS_twin_b17_A3_Cu10_PAA50_merge
# Column.16: Cu-ISS_twin_b17_B4_Cu20_PAA50_merge
# Column.17: Cu-C5_ISS_batch21_A3_Cu10_PAA50_merge
# Column.18: Cu-C7_ISS_batch22_B4_Cu20_PAA50_merge
#------------------------
#  energy  Cufoil  Cu20_PAMAM_m  Cu20_PAMAM_NaCl_30mins_m  Cu20_PAMAM_NaCl_60mins_m  Cu20_PAMAM_NaCl_90mins_m  Cu(OH)2_standard  Cu2O_standard  CuF2_standard  CuO_standard  FeTF_Cu5_PAMAM50_m  FeTF_Cu10_PAMAM50_m  FeTF_Cu20_PAMAM50_m  FeTF_Cu40_PAMAM50_m  ISS_twin_Cu10_PAMAM50 ISS_twin_Cu20_PAMAM50 ISS_Cu10_PAMAM50 ISS_Cu20_PAMAM50
  8948.04       0.00126981  -0.00913374  -0.00181926  -0.00209626   0.00232817   0.000612719   0.000791635   9.84064e-05  -0.00089099  -0.00112213   0.000728333   0.000510421   0.000598316   0.00355224   0.00343146   0.00392303   0.00322878
  8956.04      -0.000663625  -0.00859674  -0.000624586  -0.000516371   0.00423402   0.00266966   0.00259534   0.00138782   0.00042712  -0.000146089   0.00206979   0.00205515   0.00234779   0.00511698   0.00553522   0.00544819   0.00504888
  8964.04      -0.000735845  -0.00659645   0.00237769   0.00207602   0.00792017   0.00521988   0.00673448   0.00412063   0.0022934   0.00290224   0.00532393   0.00535906   0.00565077   0.00764189   0.00857128   0.00902024   0.00838146
  8969       0.00203427  -0.00216847   0.00680171   0.00704547   0.0126439   0.00790193   0.0123482   0.00744036   0.00657531   0.00631124   0.00921231   0.00933718   0.010082   0.0115917   0.0122735   0.0115914   0.0129287
  8970.99       0.0049491   0.000223277   0.00918056   0.0105465   0.0160023   0.0104716   0.0164914   0.0094926   0.00856688   0.00855636   0.0115796   0.0122442   0.0132613   0.013747   0.015241   0.0154373   0.0157036
  8972.99       0.0103589   0.00484034   0.0124924   0.0151592   0.0198785   0.0134832   0.0231187   0.0123132   0.01155   0.0124827   0.0154321   0.0165256   0.018197   0.0168056   0.0185594   0.0195597   0.0206548
  8974.99       0.022341   0.0121526   0.0208288   0.0256949   0.0303002   0.0178899   0.0359956   0.0193324   0.01748   0.0174781   0.0219657   0.023725   0.0265556   0.0220018   0.0252146   0.0252525   0.02896
  8977       0.0606845   0.0341826   0.0414967   0.0537321   0.057257   0.0331677   0.0689435   0.0281368   0.0319871   0.0337348   0.038118   0.0425515   0.0489762   0.0366383   0.0426019   0.0459865   0.049276
  8979       0.297948       0.102386       0.119311       0.185625       0.186215       0.0401172   0.255917       0.027807   0.0445007   0.0684262   0.0895844   0.109549       0.149882       0.0550112   0.0792984   0.0940195   0.114181
  8981       0.494783       0.319238       0.285447       0.344427       0.333125       0.0788286   0.644311       0.0410193   0.0978931   0.217797       0.279836       0.324237       0.37641       0.130259       0.206651       0.28206       0.379277
  8983       0.467645       0.335398       0.316665       0.358831       0.34254       0.226185       0.4921       0.0728186   0.293886       0.263055       0.33303       0.374168       0.415404       0.177682       0.245675       0.316927       0.392854
  8984.99       0.538039       0.437491       0.41598       0.45987       0.446406       0.419181       0.581867       0.17054       0.43488       0.341488       0.389275       0.424953       0.465612       0.317438       0.364501       0.424097       0.473855
  8987       0.626114       0.601101       0.569331       0.609199       0.593352       0.499881       0.698881       0.44753       0.469067       0.523895       0.546344       0.570882       0.591317       0.526398       0.551707       0.583381       0.610146
  8989       0.7773       0.740038       0.700512       0.759825       0.733614       0.704135       0.835249       0.834756       0.687897       0.669314       0.675876       0.695691       0.711422       0.676164       0.691856       0.720126       0.740806
  8991       0.962706       0.9339       0.887486       0.951069       0.925727        1.01965        1.02523        1.08558       0.97778       0.849053       0.835924       0.852388       0.865766       0.8911       0.89429       0.926031       0.925791
  8993.01        1.07876        1.13313        1.08569        1.13518        1.10147        1.2259        1.14083        1.39635        1.12282        1.08487        1.04426        1.03802        1.02568        1.15004        1.12851        1.12318        1.10074
  8995.01        1.04485        1.23339        1.15518        1.19388        1.15863        1.34819        1.17129        1.57605        1.26531        1.20854        1.14634        1.13103        1.09214        1.27669        1.23885        1.21829        1.18686
  8997       0.98182        1.25207        1.16774        1.18506        1.14871        1.42834        1.09812        1.5145        1.33416        1.23625        1.1712        1.14829        1.10142        1.31062        1.26349        1.23422        1.19661
  8999       0.9776        1.20226        1.1305        1.15524        1.12368        1.33        1.01402        1.35964        1.25756        1.19607        1.1372        1.11808        1.07333        1.27315        1.22355        1.19053        1.13958
  9001        1.05405        1.13973        1.0855        1.14385        1.11018        1.18996       0.964808        1.20717        1.12724        1.1302        1.07766        1.06892        1.04488        1.19084        1.14923        1.12268        1.08061
  9003        1.09422        1.0738        1.03506        1.11078        1.07736        1.10114       0.965201        1.08981        1.02401        1.04717        1.02246        1.01833        1.01227        1.09845        1.07269        1.05855        1.02881
  9005        1.03457        1.02445       0.987211        1.05188        1.01884        1.01228       0.988729       0.972387       0.964237       0.994004       0.975103       0.979253       0.977772        1.02367        1.0108        1.01352       0.999177
  9007       0.982286        1.00575       0.955553        1.00543       0.977624        1.00364        1.01561       0.955216       0.938437       0.962831       0.950913       0.958858       0.954386       0.984346       0.979688       0.991747       0.987467
  9009       0.942549       0.994241       0.944772       0.98663       0.956082       0.999284        1.04255       0.942405       0.949393       0.94904       0.940278       0.949407       0.943683       0.964354       0.966005       0.985048       0.984431
  9010.99       0.923071       0.990637       0.932619       0.9711       0.943418       0.991004        1.045       0.940568       0.958164       0.940161       0.934198       0.944137       0.935462       0.951503       0.957817       0.975535       0.97992
  9013.01       0.929566       0.979191       0.929724       0.971606       0.942556       0.981583        1.03929       0.942191       0.952876       0.931409       0.927978       0.938346       0.934018       0.940376       0.944805       0.958311       0.971789
  9015.01       0.946822       0.968328       0.922763       0.976967       0.943866       0.963323        1.02722       0.935066       0.941694       0.919573       0.923535       0.930469       0.930505       0.92877       0.932242       0.950149       0.959857
  9017       0.977222       0.956451       0.917292       0.976348       0.947622       0.934538       0.992993       0.917968       0.923353       0.904465       0.907679       0.923221       0.928376       0.910877       0.918676       0.936205       0.944472
  9022.01        1.06083       0.922474       0.904756       0.990736       0.96299       0.870948       0.937828       0.87737       0.836116       0.872976       0.884323       0.904088       0.929358       0.872186       0.883726       0.896105       0.907644
  9030.01        1.02495       0.930351       0.903035       0.985234       0.958781       0.879412       0.922473       0.915921       0.837558       0.877956       0.883834       0.899436       0.922234       0.890395       0.892729       0.897087       0.904444
  9038.02       0.967432       0.987318       0.951426        1.01064       0.979174        1.00034       0.978875        1.01885       0.967104       0.946006       0.938063       0.940736       0.943844       0.970683       0.965102       0.97578       0.969186
  9046.02       0.979244        1.04157       0.997635        1.0451        1.01444        1.07131        1.03496        1.05644        1.0502        1.00271       0.98891       0.988625       0.982968        1.02997        1.02282        1.02811        1.01684